File: spect/crystal-violet.txt
Wavelength (nm)	L03 abs e
220.00	17396
221.75	13910
223.50	11361
225.25	9847.4
227.00	8818.7
228.75	8305.6
230.50	7971.9
232.25	7762.0
234.00	7885.2
235.75	8361.7
237.50	8920.6
239.25	9686.9
241.00	10760
242.75	11783
244.50	13034
246.25	13871
248.00	14638
249.75	14672
251.50	14284
253.25	13379
255.00	12389
256.75	11395
258.50	10436
260.25	9370.2
262.00	8762.0
263.75	8233.6
265.50	7726.6
267.25	7557.0
269.00	7223.8
270.75	7086.0
272.50	6857.2
274.25	6906.6
276.00	7037.1
277.75	7205.5
279.50	7561.8
281.25	7954.2
283.00	8444.7
284.75	9001.7
286.50	9622.8
288.25	10511
290.00	11313
291.75	12245
293.50	13511
295.25	14267
297.00	15411
298.75	16293
300.50	16940
302.25	17155
304.00	17067
305.75	16603
307.50	15459
309.25	14112
311.00	12345
312.75	10811
314.50	9533.8
316.25	7804.7
318.00	6829.1
319.75	5533.8
321.50	5106.7
323.25	4272.1
325.00	3769.9
326.75	3333.7
328.50	3189.7
330.25	3029.3
332.00	2719.9
333.75	2475.3
335.50	2015.2
337.25	2129.9
339.00	1646.7
340.75	1719.9
342.50	1840.7
344.25	1500.9
346.00	1531.4
347.75	1490.5
349.50	1796.2
351.25	1940.2
353.00	1815.7
354.75	1715.1
356.50	1745.6
358.25	1860.9
360.00	1649.2
361.75	1646.7
363.50	1561.3
365.25	1646.1
367.00	1547.9
368.75	1726.6
370.50	1605.8
372.25	1587.5
374.00	1593.0
375.75	1601.0
377.50	1385.6
379.25	1294.7
381.00	1267.8
382.75	975.58
384.50	840.14
386.25	917.62
388.00	691.88
389.75	779.74
391.50	613.78
393.25	620.49
395.00	716.28
396.75	532.64
398.50	582.67
400.25	800.48
402.00	705.30
403.75	607.68
405.50	585.11
407.25	610.73
409.00	645.51
410.75	618.66
412.50	589.99
414.25	532.64
416.00	816.34
417.75	713.84
419.50	690.05
421.25	746.18
423.00	784.62
424.75	957.28
426.50	995.72
428.25	922.50
430.00	1091.5
431.75	1197.7
433.50	1295.3
435.25	1373.4
437.00	1393.5
438.75	1555.2
440.50	1593.0
442.25	1640.0
444.00	1906.6
445.75	1979.8
447.50	2188.5
449.25	2378.9
451.00	2609.5
452.75	2726.6
454.50	2984.7
456.25	3160.4
458.00	3419.1
459.75	3787.0
461.50	3925.5
463.25	4460.0
465.00	4572.9
466.75	4985.9
468.50	5373.3
470.25	5712.6
472.00	6194.6
473.75	6519.8
475.50	7078.6
477.25	7644.8
479.00	8148.8
480.75	8583.8
482.50	9198.2
484.25	9888.2
486.00	10652
487.75	11263
489.50	11995
491.25	12641
493.00	13338
494.75	14287
496.50	14944
498.25	15935
500.00	17151
501.75	17897
503.50	19172
505.25	20275
507.00	21441
508.75	22764
510.50	24336
512.25	25589
514.00	27042
515.75	28500
517.50	29999
519.25	31453
521.00	32966
522.75	34840
524.50	36169
526.25	37761
528.00	39135
529.75	40743
531.50	41924
533.25	43656
535.00	44526
536.75	45912
538.50	46948
540.25	48045
542.00	48935
543.75	49711
545.50	50516
547.25	51310
549.00	51842
550.75	52336
552.50	52827
554.25	53215
556.00	53827
557.75	54472
559.50	54858
561.25	55669
563.00	56270
564.75	57111
566.50	57686
568.25	59185
570.00	60267
571.75	61681
573.50	63246
575.25	64533
577.00	66326
578.75	68263
580.50	69957
582.25	71646
584.00	73141
585.75	74369
587.50	75182
589.25	75499
591.00	75662
592.75	75181
594.50	74193
596.25	72115
598.00	69972
599.75	67231
601.50	64351
603.25	61110
605.00	57544
606.75	53740
608.50	49653
610.25	45655
612.00	41635
613.75	38011
615.50	34808
617.25	31128
619.00	27754
620.75	24680
622.50	21783
624.25	19180
626.00	16946
627.75	14784
629.50	13018
631.25	11221
633.00	9966.3
634.75	8630.2
636.50	7376.4
638.25	6375.2
640.00	5333.1
641.75	4865.7
643.50	4083.5
645.25	3767.5
647.00	3079.3
648.75	2773.0
650.50	2413.6
652.25	1940.8
654.00	1755.9
655.75	1272.7
657.50	1357.5
659.25	1183.0
661.00	915.79
662.75	840.75
664.50	617.44
666.25	588.16
668.00	511.28
669.75	470.40
671.50	377.06
673.25	231.85
675.00	352.65
676.75	154.36
678.50	283.10
680.25	211.71
682.00	209.88
683.75	278.22
685.50	206.22
687.25	116.53
689.00	43.319
690.75	115.31
692.50	119.58
694.25	219.03
696.00	47.589
697.75	-1.8304
699.50	101.89
700.00	47.589